Data from RamanShift_17-41-51-378.txt Node
Date: Thu Oct 02 17:41:51 EDT 2025
User: Administrator
Spectrometer: QEP01809
Trigger mode: 4
Integration Time (sec): 5.000000E0
Scans to average: 3
Electric dark correction enabled: true
Nonlinearity correction enabled: false
Boxcar width: 0
XAxis mode: Raman Shifts
Number of Pixels in Spectrum: 1044
>>>>>Begin Spectral Data<<<<<
-63.177	0.58
-60.302	0.25
-57.43	-0.75
-54.559	4.25
-51.691	2.58
-48.824	-2.75
-45.959	-4.75
-43.096	-0.75
-40.235	3.25
-37.376	0.25
-34.519	1.58
-31.664	0.58
-28.81	2.25
-25.959	2.25
-23.109	-1.75
-20.262	-3.42
-17.416	-1.75
-14.572	0.92
-11.73	2.92
-8.89	3.58
-6.052	-1.42
-3.215	4.92
-0.381	2.25
2.452	0.58
5.283	4.25
8.111	-2.42
10.938	0.58
13.763	2.92
16.587	0.25
19.408	-1.75
22.227	-1.08
25.045	-0.42
27.861	-0.75
30.675	1.25
33.487	-2.75
36.297	-2.75
39.105	-3.42
41.911	-5.75
44.716	-3.08
47.519	-5.75
50.319	2.92
53.118	-3.75
55.916	-3.42
58.711	4.58
61.504	-4.75
64.296	-2.08
67.086	-1.42
69.874	3.25
72.66	0.25
75.444	3.58
78.226	0.25
81.007	-4.42
83.785	2.58
86.562	-1.08
89.337	3.25
92.111	-3.08
94.882	0.58
97.652	5.25
100.419	-0.75
103.185	1.25
105.949	2.25
108.712	-7.42
111.472	0.25
114.231	-3.08
116.988	-1.08
119.743	-3.75
122.496	-0.75
125.247	2.25
127.997	4.58
130.745	-1.42
133.491	-0.75
136.235	-2.08
138.977	2.92
141.718	-5.08
144.457	2.25
147.194	3.92
149.929	10.92
152.662	19.25
155.394	17.58
158.124	14.25
160.852	1.25
163.578	-2.42
166.303	-7.08
169.025	-1.08
171.746	2.25
174.465	1.92
177.183	-5.42
179.898	-3.42
182.612	-3.75
185.324	1.92
188.034	2.92
190.743	1.58
193.449	-0.75
196.154	-0.75
198.857	0.92
201.559	-0.75
204.258	-2.42
206.956	0.25
209.652	-0.75
212.347	-2.42
215.039	-2.75
217.73	-3.08
220.419	-9.75
223.106	-1.08
225.792	-2.08
228.476	-0.42
231.158	-0.75
233.838	5.92
236.517	2.25
239.194	5.58
241.869	13.58
244.542	19.92
247.214	8.58
249.884	12.92
252.552	14.25
255.218	22.25
257.883	31.58
260.546	19.92
263.207	18.25
265.867	1.25
268.524	3.58
271.18	-0.75
273.835	-5.08
276.487	4.25
279.138	2.58
281.787	0.92
284.435	-5.42
287.08	-0.75
289.724	1.92
292.367	6.92
295.007	-2.42
297.646	-6.42
300.283	-2.08
302.919	-1.42
305.552	6.58
308.184	5.25
310.815	-1.75
313.443	-0.08
316.07	-7.75
318.696	4.58
321.319	3.25
323.941	1.58
326.561	2.25
329.18	-0.42
331.796	-0.08
334.411	-2.75
337.025	1.58
339.636	0.92
342.246	-5.08
344.855	-3.08
347.461	4.58
350.066	-4.08
352.67	-3.75
355.271	3.58
357.871	-1.42
360.47	3.92
363.066	3.25
365.661	1.92
368.254	0.25
370.846	6.58
373.436	10.58
376.024	18.58
378.611	14.92
381.195	18.58
383.779	8.92
386.36	4.92
388.94	16.92
391.518	33.25
394.095	34.25
396.67	40.25
399.243	30.92
401.815	17.92
404.385	38.92
406.953	77.92
409.52	135.58
412.085	143.25
414.649	131.92
417.21	81.25
419.77	24.25
422.329	3.92
424.886	0.58
427.441	0.58
429.994	-2.42
432.546	2.25
435.097	3.25
437.645	1.92
440.192	-1.42
442.738	0.58
445.282	-0.42
447.824	-0.08
450.364	-0.42
452.903	-0.42
455.44	-1.42
457.976	2.92
460.51	-5.08
463.043	-5.08
465.573	-3.42
468.103	-4.08
470.63	-4.42
473.156	2.58
475.68	-4.75
478.203	4.92
480.724	-2.75
483.244	-5.75
485.762	-1.75
488.278	1.58
490.793	-3.08
493.306	-3.42
495.817	-4.08
498.327	-2.75
500.836	3.25
503.342	-2.08
505.847	-4.42
508.351	3.92
510.853	-1.75
513.353	-6.75
515.852	-0.75
518.349	-0.75
520.845	-1.42
523.339	-3.42
525.831	0.58
528.322	3.25
530.811	2.25
533.299	1.25
535.785	1.58
538.269	-2.08
540.752	-6.08
543.234	-0.75
545.714	-3.08
548.192	-0.42
550.668	2.25
553.143	-0.42
555.617	3.58
558.089	1.58
560.559	-4.42
563.028	2.92
565.495	2.92
567.961	4.58
570.425	-3.08
572.888	-1.75
575.349	2.58
577.808	1.92
580.266	-1.75
582.722	-2.75
585.177	-0.75
587.63	-4.75
590.082	0.58
592.532	-1.08
594.981	-7.08
597.428	-7.08
599.873	-2.75
602.317	-1.08
604.759	-4.75
607.2	0.92
609.64	4.58
612.077	-1.08
614.514	-4.42
616.948	-4.08
619.382	2.25
621.813	3.58
624.243	-1.75
626.672	5.92
629.099	9.92
631.524	19.25
633.948	26.58
636.371	15.25
638.792	17.92
641.211	7.58
643.629	4.58
646.046	-1.42
648.46	-6.08
650.874	-5.42
653.286	-0.75
655.696	4.92
658.105	-1.08
660.512	5.58
662.918	-1.75
665.322	-4.75
667.725	-0.75
670.126	-1.08
672.526	1.92
674.924	1.58
677.321	-2.75
679.716	-2.08
682.11	-4.42
684.502	3.25
686.893	-2.08
689.282	-0.42
691.67	0.58
694.056	-2.08
696.441	-0.08
698.824	0.92
701.206	1.25
703.586	-2.08
705.965	-0.75
708.342	-0.08
710.718	-1.42
713.092	-2.42
715.465	3.25
717.836	1.58
720.206	3.58
722.575	1.25
724.941	-6.75
727.307	-2.42
729.671	-3.08
732.033	1.92
734.394	-1.08
736.754	-10.08
739.112	1.58
741.468	-2.75
743.824	-4.75
746.177	-0.08
748.529	-0.08
750.88	-2.75
753.229	5.25
755.577	-4.75
757.923	3.58
760.268	-4.42
762.612	4.92
764.954	-1.08
767.294	-2.08
769.633	-2.42
771.971	-2.75
774.307	-7.42
776.642	-0.42
778.975	-5.42
781.307	-2.42
783.637	-2.42
785.966	-5.08
788.293	-1.75
790.619	3.58
792.944	0.58
795.267	-1.08
797.588	1.58
799.909	-5.75
802.227	-0.42
804.545	1.25
806.861	1.92
809.175	-1.42
811.488	1.58
813.8	-5.08
816.11	-0.75
818.419	-0.75
820.726	-1.08
823.032	-1.75
825.336	-2.08
827.639	-6.42
829.941	0.25
832.241	5.25
834.54	7.92
836.837	20.58
839.133	48.58
841.427	49.92
843.72	49.25
846.012	37.92
848.302	11.58
850.591	3.25
852.878	4.92
855.164	5.58
857.449	4.25
859.732	36.92
862.014	85.92
864.294	108.58
866.573	97.25
868.851	82.58
871.127	29.92
873.401	11.25
875.675	-4.42
877.947	-0.08
880.217	0.58
882.486	2.92
884.754	1.92
887.02	2.25
889.285	1.58
891.549	2.25
893.811	-2.75
896.072	1.58
898.331	-1.75
900.589	-1.08
902.845	-1.08
905.101	2.58
907.354	-4.75
909.607	-3.42
911.858	-7.08
914.108	-2.08
916.356	-0.08
918.603	-1.08
920.848	-2.08
923.092	0.58
925.335	2.25
927.576	-1.75
929.816	0.25
932.055	0.25
934.292	1.25
936.528	-2.75
938.763	8.58
940.996	4.58
943.227	0.92
945.458	2.25
947.687	-2.75
949.914	-5.75
952.141	-1.42
954.366	-1.75
956.589	2.92
958.811	6.92
961.032	-4.75
963.252	5.25
965.47	0.25
967.687	2.25
969.902	-0.08
972.116	-1.08
974.329	4.58
976.54	3.92
978.75	4.58
980.959	5.25
983.166	-2.08
985.372	0.25
987.577	-4.42
989.78	-2.08
991.982	2.58
994.182	-0.75
996.381	16.25
998.579	31.25
1000.776	29.25
1002.971	26.58
1005.165	14.58
1007.357	4.58
1009.549	5.58
1011.738	-0.42
1013.927	5.92
1016.114	-3.42
1018.3	-5.42
1020.484	2.92
1022.668	-1.75
1024.849	0.58
1027.03	-3.75
1029.209	3.25
1031.387	-1.42
1033.564	-0.75
1035.739	3.58
1037.913	-1.75
1040.085	2.25
1042.257	-1.08
1044.426	2.58
1046.595	-0.75
1048.762	2.25
1050.928	0.58
1053.093	5.92
1055.256	2.25
1057.418	-0.75
1059.579	0.25
1061.739	1.92
1063.897	2.92
1066.053	2.58
1068.209	0.25
1070.363	-2.75
1072.516	-2.08
1074.668	-3.08
1076.818	-1.75
1078.967	-1.42
1081.114	0.25
1083.261	1.58
1085.406	-2.08
1087.55	-1.08
1089.692	-4.75
1091.833	-0.42
1093.973	-2.75
1096.112	6.25
1098.249	0.92
1100.385	-1.75
1102.52	-6.08
1104.653	2.58
1106.785	1.92
1108.916	1.58
1111.045	-3.42
1113.174	0.58
1115.301	5.58
1117.426	0.58
1119.551	-1.42
1121.674	4.25
1123.796	3.25
1125.916	0.58
1128.035	1.25
1130.153	2.92
1132.27	1.25
1134.385	-3.75
1136.5	-0.75
1138.613	0.92
1140.724	3.58
1142.834	0.92
1144.944	6.92
1147.051	0.58
1149.158	7.25
1151.263	-4.75
1153.367	0.92
1155.47	-0.75
1157.571	4.58
1159.671	-0.75
1161.77	0.25
1163.868	-2.42
1165.964	0.92
1168.059	-0.75
1170.153	-2.75
1172.246	1.92
1174.337	0.58
1176.427	3.25
1178.516	3.92
1180.604	-1.42
1182.69	-2.42
1184.775	-2.08
1186.859	4.25
1188.942	2.58
1191.023	2.92
1193.103	1.92
1195.182	8.58
1197.259	7.58
1199.336	4.92
1201.411	4.25
1203.485	2.92
1205.557	0.25
1207.629	2.92
1209.699	2.25
1211.768	4.92
1213.835	-1.42
1215.902	7.25
1217.967	5.25
1220.031	4.58
1222.093	-8.08
1224.155	1.92
1226.215	4.92
1228.274	4.25
1230.332	0.58
1232.388	1.58
1234.443	-0.42
1236.498	11.25
1238.55	-0.42
1240.602	4.92
1242.652	13.25
1244.701	3.92
1246.749	-0.08
1248.796	-0.08
1250.842	2.92
1252.886	-0.42
1254.929	0.92
1256.971	18.25
1259.011	80.58
1261.051	263.25
1263.089	393.92
1265.126	463.58
1267.161	437.25
1269.196	297.58
1271.229	167.92
1273.261	78.92
1275.292	24.25
1277.322	8.92
1279.35	5.92
1281.378	3.92
1283.404	9.92
1285.428	9.25
1287.452	1.58
1289.474	1.25
1291.496	1.25
1293.516	3.25
1295.534	6.92
1297.552	-1.75
1299.568	1.92
1301.584	4.92
1303.598	1.58
1305.61	0.25
1307.622	3.92
1309.633	6.25
1311.642	2.25
1313.65	4.58
1315.657	8.25
1317.662	1.92
1319.667	5.58
1321.67	3.58
1323.672	1.92
1325.673	0.92
1327.673	3.25
1329.671	2.92
1331.668	-1.08
1333.665	3.25
1335.66	-0.08
1337.653	-0.75
1339.646	2.58
1341.637	0.25
1343.628	-2.08
1345.617	-0.08
1347.604	3.58
1349.591	1.92
1351.577	0.92
1353.561	3.92
1355.544	10.58
1357.526	3.25
1359.507	1.25
1361.487	4.92
1363.465	-0.08
1365.442	-1.75
1367.418	-3.75
1369.393	5.58
1371.367	-0.42
1373.34	-6.75
1375.311	-0.42
1377.282	-0.08
1379.251	4.92
1381.219	0.92
1383.185	4.25
1385.151	-0.08
1387.116	0.58
1389.079	4.25
1391.041	2.58
1393.002	3.58
1394.962	5.25
1396.921	8.58
1398.878	1.25
1400.834	1.58
1402.79	4.92
1404.744	2.25
1406.697	3.25
1408.648	-1.42
1410.599	-1.08
1412.549	4.58
1414.497	2.92
1416.444	5.25
1418.39	-4.42
1420.335	1.92
1422.279	4.58
1424.221	-2.42
1426.163	1.25
1428.103	-2.42
1430.042	-0.75
1431.98	0.25
1433.917	2.25
1435.853	5.25
1437.787	-2.08
1439.721	0.58
1441.653	-1.08
1443.584	3.25
1445.514	-0.08
1447.443	0.25
1449.371	-2.42
1451.298	4.92
1453.223	4.25
1455.147	6.58
1457.071	2.92
1458.993	2.58
1460.914	0.58
1462.834	2.58
1464.752	3.58
1466.67	3.58
1468.587	5.58
1470.502	4.25
1472.416	2.92
1474.329	-4.42
1476.241	3.25
1478.152	5.92
1480.062	1.58
1481.971	4.58
1483.878	6.58
1485.784	3.58
1487.69	1.58
1489.594	0.92
1491.497	1.25
1493.399	-5.08
1495.3	-1.42
1497.199	2.58
1499.098	0.92
1500.996	-3.08
1502.892	-2.42
1504.787	6.58
1506.681	1.92
1508.574	0.92
1510.466	2.92
1512.357	4.25
1514.247	-4.42
1516.136	1.58
1518.023	1.92
1519.909	-0.42
1521.795	1.58
1523.679	4.58
1525.562	3.58
1527.444	-3.42
1529.325	5.58
1531.205	4.58
1533.084	0.25
1534.961	-0.08
1536.838	3.58
1538.713	3.58
1540.588	1.25
1542.461	1.58
1544.333	0.25
1546.204	-0.08
1548.074	0.25
1549.943	4.58
1551.811	5.58
1553.677	2.58
1555.543	3.58
1557.408	2.58
1559.271	4.25
1561.133	4.92
1562.995	4.25
1564.855	1.25
1566.714	1.25
1568.572	-0.75
1570.429	0.58
1572.285	-0.42
1574.14	3.92
1575.993	-2.08
1577.846	-2.75
1579.697	-0.08
1581.548	1.58
1583.397	4.25
1585.246	5.25
1587.093	0.58
1588.939	6.25
1590.784	-0.42
1592.628	3.92
1594.471	2.92
1596.313	6.58
1598.154	3.92
1599.994	-4.75
1601.832	7.58
1603.67	7.58
1605.507	9.58
1607.342	9.25
1609.177	-3.42
1611.01	3.92
1612.842	4.58
1614.673	-0.42
1616.504	1.25
1618.333	0.92
1620.161	-0.75
1621.988	3.92
1623.814	1.25
1625.639	8.25
1627.462	1.58
1629.285	-0.75
1631.107	7.25
1632.928	4.58
1634.747	3.92
1636.566	-3.75
1638.383	3.92
1640.2	5.58
1642.015	4.25
1643.829	5.58
1645.643	2.58
1647.455	4.92
1649.266	-0.08
1651.076	3.58
1652.885	1.25
1654.693	-3.42
1656.5	2.58
1658.306	-0.08
1660.111	-0.08
1661.915	-1.08
1663.718	0.25
1665.52	4.25
1667.321	-0.42
1669.12	7.25
1670.919	-1.08
1672.717	3.25
1674.513	4.58
1676.309	-0.42
1678.103	-3.08
1679.897	5.92
1681.689	5.58
1683.481	-0.42
1685.271	2.25
1687.061	1.25
1688.849	0.25
1690.636	-1.42
1692.422	3.25
1694.208	-3.75
1695.992	-9.08
1697.775	-0.75
1699.557	-3.75
1701.338	-5.75
1703.118	-3.08
1704.898	1.58
1706.676	2.25
1708.453	-6.08
1710.229	6.25
1712.004	3.92
1713.778	2.58
1715.551	2.58
1717.323	1.25
1719.093	3.58
1720.863	3.25
1722.632	-1.42
1724.4	1.92
1726.167	-2.75
1727.933	3.92
1729.698	1.92
1731.461	3.25
1733.224	0.25
1734.986	4.58
1736.747	-0.42
1738.506	1.25
1740.265	-2.42
1742.023	0.92
1743.78	3.92
1745.535	4.58
1747.29	-1.75
1749.044	-2.08
1750.797	3.58
1752.548	3.25
1754.299	-2.75
1756.049	5.92
1757.797	-3.08
1759.545	4.58
1761.292	3.58
1763.037	5.25
1764.782	5.58
1766.526	10.25
1768.268	1.25
1770.01	13.25
1771.751	37.92
1773.49	56.25
1775.229	70.25
1776.967	76.58
1778.703	72.25
1780.439	65.58
1782.174	52.58
1783.908	42.92
1785.64	36.92
1787.372	23.92
1789.103	24.25
1790.833	20.58
1792.561	14.58
1794.289	14.25
1796.016	10.92
1797.742	6.25
1799.467	0.58
1801.19	7.58
1802.913	6.58
1804.635	-1.42
1806.356	1.25
1808.076	1.92
1809.795	-5.42
1811.513	3.92
1813.23	0.92
1814.946	4.25
1816.661	0.25
1818.375	8.25
1820.088	2.58
1821.8	6.58
1823.511	0.92
1825.221	1.58
1826.93	0.58
1828.638	1.25
1830.346	2.58
1832.052	-2.75
1833.757	-1.75
1835.461	2.58
1837.165	2.58
1838.867	-1.08
1840.568	-6.08
1842.269	7.92
1843.968	2.58
1845.667	1.58
1847.364	1.25
1849.061	-2.75
1850.756	-0.75
1852.451	4.25
1854.144	6.92
1855.837	-4.42
1857.529	2.92
1859.219	3.25
1860.909	2.58
1862.598	0.25
1864.286	-0.75
1865.973	-0.75
1867.659	3.92
1869.344	2.25
1871.028	2.92
1872.711	6.58
1874.393	1.58
1876.074	2.25
1877.754	1.25
1879.434	-2.75
1881.112	3.58
1882.789	1.25
1884.466	-1.75
1886.141	3.25
1887.816	3.92
1889.489	-0.75
1891.162	0.58
1892.833	8.58
1894.504	8.25
1896.174	11.25
1897.843	13.58
1899.51	8.25
1901.177	12.92
1902.843	16.58
1904.508	3.58
1906.172	9.92
1907.835	7.25
1909.498	7.25
1911.159	5.25
1912.819	-1.42
1914.479	2.92
1916.137	0.92
1917.794	2.92
1919.451	-3.08
1921.107	1.25
1922.761	3.25
1924.415	-5.75
1926.068	0.58
1927.72	1.25
1929.371	-2.75
1931.021	0.58
1932.67	6.58
1934.318	-0.08
1935.965	1.25
1937.611	4.25
1939.257	-0.75
1940.901	2.25
1942.545	4.25
1944.187	3.25
1945.829	-2.08
1947.469	-2.08
1949.109	3.25
1950.748	0.25
1952.386	2.58
1954.023	-1.42
1955.659	6.92
1957.294	-3.42
1958.928	1.25
1960.562	-4.42
1962.194	-2.08
1963.826	-0.75
1965.456	0.25
1967.086	-2.42
1968.714	0.58
1970.342	-1.75
1971.969	-0.08
1973.595	0.58
1975.22	-6.75
1976.844	1.25
1978.467	-0.08
1980.09	3.25
1981.711	-1.08
1983.331	-3.08
1984.951	1.58
1986.57	2.25
1988.187	-6.42
1989.804	-3.08
1991.42	2.58
1993.035	-4.08
1994.649	0.25
1996.262	0.92
1997.874	-0.75
1999.486	-4.75
2001.096	0.58
2002.706	0.92
2004.314	0.58
2005.922	4.58
2007.529	0.25
2009.135	-0.42
2010.74	0.25
2012.344	-0.42
2013.947	-2.75
2015.55	3.92
2017.151	-3.42
2018.751	2.58
2020.351	4.25
2021.95	-1.08
2023.548	-0.08
2025.145	1.25
2026.741	0.58
2028.336	0.92
2029.93	-0.42
2031.523	4.25
2033.116	-0.08
2034.707	1.25
2036.298	-2.75
2037.888	-4.75
2039.476	-3.75
2041.064	3.92
2042.652	9.25
2044.238	1.25
2045.823	0.58
2047.407	6.58
2048.991	-3.42
2050.574	0.58
2052.155	5.92
2053.736	6.25
2055.316	0.58
2056.895	-2.75
2058.474	7.92
2060.051	-6.75
2061.627	-5.08
2063.203	1.58
2064.778	-3.42
2066.351	-4.75
2067.924	-5.42
2069.496	-0.08
2071.067	1.25
2072.638	0.25
2074.207	-1.42
2075.776	-4.42
2077.343	-4.42
2078.91	0.58
2080.476	-0.75
2082.041	-1.08
2083.605	-1.42
2085.168	-3.75
2086.731	-1.75
2088.292	0.92
2089.853	-0.75
2091.413	0.92
2092.972	-0.42
2094.53	-2.75
2096.087	-8.75
2097.643	-7.42
2099.198	0.92
2100.753	-5.42
2102.307	-0.75
2103.859	-1.42
2105.411	3.25
2106.963	-0.75
2108.513	3.25
2110.062	-6.08
2111.611	1.92
2113.158	1.25
2114.705	-1.42
2116.251	-0.42
2117.796	-0.75
2119.34	4.58
2120.883	3.25
2122.426	0.58
2123.967	-4.42
2125.508	2.25
2127.048	0.58
2128.587	0.58
2130.125	-0.75
2131.662	-4.75
2133.199	-4.08
2134.734	-1.08
2136.269	-2.08
2137.803	1.25
2139.336	-1.75
2140.868	-1.75
